Sample 2 - sdpdrr2 - Wavelength 0.79764
  1.500 341
  1.505 326
  1.510 329
  1.515 323
  1.520 330
  1.525 314
  1.530 349
  1.535 361
  1.540 326
  1.545 352
  1.550 352
  1.555 352
  1.560 346
  1.565 352
  1.570 333
  1.575 345
  1.580 311
  1.585 320
  1.590 317
  1.595 336
  1.600 357
  1.605 320
  1.610 333
  1.615 324
  1.620 362
  1.625 337
  1.630 336
  1.635 347
  1.640 334
  1.645 324
  1.650 312
  1.655 344
  1.660 332
  1.665 309
  1.670 316
  1.675 331
  1.680 319
  1.685 333
  1.690 363
  1.695 328
  1.700 327
  1.705 314
  1.710 332
  1.715 325
  1.720 341
  1.725 332
  1.730 366
  1.735 338
  1.740 310
  1.745 323
  1.750 307
  1.755 355
  1.760 321
  1.765 346
  1.770 355
  1.775 295
  1.780 361
  1.785 321
  1.790 329
  1.795 317
  1.800 341
  1.805 345
  1.810 341
  1.815 327
  1.820 346
  1.825 317
  1.830 317
  1.835 339
  1.840 333
  1.845 349
  1.850 330
  1.855 316
  1.860 343
  1.865 331
  1.870 330
  1.875 370
  1.880 310
  1.885 315
  1.890 313
  1.895 337
  1.900 355
  1.905 306
  1.910 321
  1.915 332
  1.920 344
  1.925 293
  1.930 343
  1.935 302
  1.940 334
  1.945 306
  1.950 376
  1.955 318
  1.960 310
  1.965 337
  1.970 339
  1.975 338
  1.980 337
  1.985 281
  1.990 353
  1.995 337
  2.000 349
  2.005 316
  2.010 315
  2.015 335
  2.020 360
  2.025 321
  2.030 285
  2.035 335
  2.040 322
  2.045 297
  2.050 304
  2.055 330
  2.060 351
  2.065 330
  2.070 343
  2.075 331
  2.080 333
  2.085 350
  2.090 328
  2.095 347
  2.100 326
  2.105 320
  2.110 324
  2.115 304
  2.120 356
  2.125 345
  2.130 329
  2.135 370
  2.140 338
  2.145 287
  2.150 345
  2.155 337
  2.160 345
  2.165 339
  2.170 325
  2.175 326
  2.180 336
  2.185 321
  2.190 316
  2.195 313
  2.200 323
  2.205 310
  2.210 332
  2.215 329
  2.220 346
  2.225 343
  2.230 335
  2.235 313
  2.240 308
  2.245 326
  2.250 306
  2.255 312
  2.260 337
  2.265 286
  2.270 321
  2.275 333
  2.280 353
  2.285 342
  2.290 329
  2.295 350
  2.300 306
  2.305 327
  2.310 294
  2.315 312
  2.320 310
  2.325 315
  2.330 318
  2.335 340
  2.340 320
  2.345 310
  2.350 295
  2.355 319
  2.360 308
  2.365 317
  2.370 321
  2.375 313
  2.380 332
  2.385 319
  2.390 335
  2.395 326
  2.400 338
  2.405 334
  2.410 314
  2.415 298
  2.420 343
  2.425 315
  2.430 317
  2.435 306
  2.440 328
  2.445 325
  2.450 313
  2.455 306
  2.460 330
  2.465 322
  2.470 302
  2.475 313
  2.480 329
  2.485 318
  2.490 337
  2.495 326
  2.500 329
  2.505 291
  2.510 332
  2.515 315
  2.520 306
  2.525 325
  2.530 323
  2.535 271
  2.540 344
  2.545 327
  2.550 304
  2.555 300
  2.560 321
  2.565 340
  2.570 322
  2.575 314
  2.580 329
  2.585 309
  2.590 335
  2.595 324
  2.600 316
  2.605 334
  2.610 311
  2.615 311
  2.620 339
  2.625 282
  2.630 332
  2.635 303
  2.640 315
  2.645 324
  2.650 314
  2.655 313
  2.660 317
  2.665 316
  2.670 349
  2.675 308
  2.680 285
  2.685 330
  2.690 305
  2.695 320
  2.700 316
  2.705 317
  2.710 314
  2.715 316
  2.720 309
  2.725 312
  2.730 335
  2.735 318
  2.740 337
  2.745 343
  2.750 271
  2.755 333
  2.760 336
  2.765 306
  2.770 333
  2.775 322
  2.780 301
  2.785 326
  2.790 307
  2.795 309
  2.800 305
  2.805 323
  2.810 332
  2.815 288
  2.820 361
  2.825 299
  2.830 306
  2.835 313
  2.840 312
  2.845 353
  2.850 313
  2.855 281
  2.860 323
  2.865 299
  2.870 322
  2.875 295
  2.880 331
  2.885 334
  2.890 311
  2.895 318
  2.900 320
  2.905 311
  2.910 340
  2.915 300
  2.920 311
  2.925 336
  2.930 304
  2.935 318
  2.940 331
  2.945 309
  2.950 304
  2.955 323
  2.960 329
  2.965 317
  2.970 307
  2.975 357
  2.980 306
  2.985 318
  2.990 281
  2.995 330
  3.000 323
  3.005 277
  3.010 295
  3.015 324
  3.020 327
  3.025 288
  3.030 329
  3.035 330
  3.040 292
  3.045 320
  3.050 316
  3.055 296
  3.060 268
  3.065 343
  3.070 313
  3.075 300
  3.080 297
  3.085 321
  3.090 307
  3.095 321
  3.100 329
  3.105 304
  3.110 316
  3.115 337
  3.120 315
  3.125 321
  3.130 297
  3.135 309
  3.140 323
  3.145 326
  3.150 351
  3.155 301
  3.160 323
  3.165 322
  3.170 342
  3.175 289
  3.180 311
  3.185 291
  3.190 349
  3.195 328
  3.200 286
  3.205 303
  3.210 318
  3.215 327
  3.220 288
  3.225 297
  3.230 304
  3.235 349
  3.240 319
  3.245 269
  3.250 308
  3.255 319
  3.260 285
  3.265 286
  3.270 304
  3.275 299
  3.280 293
  3.285 317
  3.290 325
  3.295 294
  3.300 317
  3.305 291
  3.310 302
  3.315 300
  3.320 285
  3.325 323
  3.330 330
  3.335 300
  3.340 297
  3.345 293
  3.350 275
  3.355 327
  3.360 295
  3.365 311
  3.370 302
  3.375 302
  3.380 344
  3.385 326
  3.390 297
  3.395 302
  3.400 297
  3.405 298
  3.410 296
  3.415 319
  3.420 328
  3.425 289
  3.430 311
  3.435 312
  3.440 263
  3.445 298
  3.450 320
  3.455 312
  3.460 312
  3.465 327
  3.470 303
  3.475 320
  3.480 311
  3.485 282
  3.490 305
  3.495 299
  3.500 327
  3.505 305
  3.510 312
  3.515 310
  3.520 325
  3.525 321
  3.530 270
  3.535 305
  3.540 291
  3.545 297
  3.550 312
  3.555 327
  3.560 294
  3.565 297
  3.570 301
  3.575 296
  3.580 318
  3.585 293
  3.590 297
  3.595 312
  3.600 294
  3.605 302
  3.610 293
  3.615 343
  3.620 302
  3.625 321
  3.630 320
  3.635 275
  3.640 269
  3.645 285
  3.650 314
  3.655 307
  3.660 309
  3.665 308
  3.670 311
  3.675 310
  3.680 299
  3.685 287
  3.690 284
  3.695 305
  3.700 316
  3.705 302
  3.710 279
  3.715 281
  3.720 307
  3.725 289
  3.730 332
  3.735 283
  3.740 269
  3.745 293
  3.750 295
  3.755 309
  3.760 302
  3.765 292
  3.770 330
  3.775 317
  3.780 320
  3.785 313
  3.790 317
  3.795 306
  3.800 309
  3.805 287
  3.810 295
  3.815 286
  3.820 305
  3.825 302
  3.830 297
  3.835 300
  3.840 291
  3.845 296
  3.850 297
  3.855 332
  3.860 300
  3.865 294
  3.870 304
  3.875 299
  3.880 289
  3.885 305
  3.890 293
  3.895 318
  3.900 319
  3.905 302
  3.910 307
  3.915 279
  3.920 279
  3.925 293
  3.930 319
  3.935 329
  3.940 320
  3.945 305
  3.950 300
  3.955 279
  3.960 293
  3.965 341
  3.970 280
  3.975 299
  3.980 282
  3.985 299
  3.990 294
  3.995 304
  4.000 327
  4.005 304
  4.010 314
  4.015 306
  4.020 302
  4.025 281
  4.030 301
  4.035 287
  4.040 280
  4.045 300
  4.050 296
  4.055 284
  4.060 335
  4.065 299
  4.070 327
  4.075 303
  4.080 307
  4.085 302
  4.090 300
  4.095 331
  4.100 298
  4.105 308
  4.110 337
  4.115 294
  4.120 323
  4.125 288
  4.130 291
  4.135 307
  4.140 337
  4.145 297
  4.150 317
  4.155 313
  4.160 333
  4.165 320
  4.170 363
  4.175 347
  4.180 338
  4.185 351
  4.190 342
  4.195 358
  4.200 409
  4.205 377
  4.210 434
  4.215 461
  4.220 564
  4.225 793
  4.230 1268
  4.235 2134
  4.240 3480
  4.245 4814
  4.250 4023
  4.255 2397
  4.260 1201
  4.265 692
  4.270 481
  4.275 455
  4.280 424
  4.285 382
  4.290 377
  4.295 383
  4.300 348
  4.305 329
  4.310 350
  4.315 331
  4.320 336
  4.325 309
  4.330 279
  4.335 326
  4.340 331
  4.345 316
  4.350 337
  4.355 300
  4.360 327
  4.365 284
  4.370 297
  4.375 318
  4.380 322
  4.385 323
  4.390 301
  4.395 332
  4.400 310
  4.405 289
  4.410 282
  4.415 321
  4.420 315
  4.425 280
  4.430 300
  4.435 319
  4.440 283
  4.445 292
  4.450 317
  4.455 302
  4.460 291
  4.465 312
  4.470 308
  4.475 313
  4.480 311
  4.485 309
  4.490 291
  4.495 277
  4.500 326
  4.505 318
  4.510 303
  4.515 297
  4.520 281
  4.525 300
  4.530 285
  4.535 286
  4.540 316
  4.545 287
  4.550 303
  4.555 274
  4.560 313
  4.565 318
  4.570 292
  4.575 290
  4.580 327
  4.585 276
  4.590 310
  4.595 311
  4.600 309
  4.605 323
  4.610 293
  4.615 316
  4.620 284
  4.625 300
  4.630 277
  4.635 299
  4.640 302
  4.645 318
  4.650 319
  4.655 283
  4.660 316
  4.665 258
  4.670 299
  4.675 288
  4.680 304
  4.685 311
  4.690 326
  4.695 294
  4.700 297
  4.705 291
  4.710 309
  4.715 323
  4.720 322
  4.725 315
  4.730 314
  4.735 319
  4.740 345
  4.745 348
  4.750 402
  4.755 435
  4.760 472
  4.765 561
  4.770 769
  4.775 1388
  4.780 2221
  4.785 2915
  4.790 2673
  4.795 1658
  4.800 962
  4.805 582
  4.810 465
  4.815 425
  4.820 366
  4.825 381
  4.830 338
  4.835 351
  4.840 315
  4.845 307
  4.850 312
  4.855 311
  4.860 320
  4.865 292
  4.870 302
  4.875 311
  4.880 311
  4.885 325
  4.890 311
  4.895 296
  4.900 268
  4.905 262
  4.910 270
  4.915 309
  4.920 292
  4.925 278
  4.930 281
  4.935 278
  4.940 337
  4.945 307
  4.950 308
  4.955 306
  4.960 302
  4.965 275
  4.970 302
  4.975 325
  4.980 302
  4.985 304
  4.990 262
  4.995 281
  5.000 295
  5.005 280
  5.010 292
  5.015 341
  5.020 294
  5.025 278
  5.030 317
  5.035 341
  5.040 323
  5.045 303
  5.050 302
  5.055 290
  5.060 307
  5.065 270
  5.070 267
  5.075 294
  5.080 293
  5.085 314
  5.090 259
  5.095 293
  5.100 298
  5.105 286
  5.110 285
  5.115 304
  5.120 263
  5.125 286
  5.130 269
  5.135 264
  5.140 281
  5.145 280
  5.150 271
  5.155 286
  5.160 299
  5.165 282
  5.170 289
  5.175 305
  5.180 267
  5.185 287
  5.190 277
  5.195 288
  5.200 303
  5.205 326
  5.210 317
  5.215 317
  5.220 279
  5.225 310
  5.230 288
  5.235 268
  5.240 295
  5.245 326
  5.250 279
  5.255 300
  5.260 302
  5.265 309
  5.270 314
  5.275 316
  5.280 292
  5.285 312
  5.290 312
  5.295 312
  5.300 338
  5.305 305
  5.310 320
  5.315 337
  5.320 320
  5.325 346
  5.330 333
  5.335 343
  5.340 366
  5.345 402
  5.350 393
  5.355 425
  5.360 409
  5.365 482
  5.370 526
  5.375 672
  5.380 815
  5.385 1043
  5.390 1759
  5.395 3267
  5.400 5924
  5.405 8929
  5.410 9025
  5.415 5984
  5.420 3161
  5.425 1546
  5.430 932
  5.435 707
  5.440 610
  5.445 531
  5.450 462
  5.455 452
  5.460 375
  5.465 407
  5.470 373
  5.475 360
  5.480 341
  5.485 296
  5.490 351
  5.495 283
  5.500 322
  5.505 298
  5.510 326
  5.515 323
  5.520 328
  5.525 332
  5.530 312
  5.535 318
  5.540 300
  5.545 308
  5.550 307
  5.555 268
  5.560 306
  5.565 325
  5.570 270
  5.575 284
  5.580 306
  5.585 300
  5.590 283
  5.595 266
  5.600 311
  5.605 279
  5.610 271
  5.615 293
  5.620 285
  5.625 301
  5.630 281
  5.635 282
  5.640 277
  5.645 279
  5.650 262
  5.655 306
  5.660 298
  5.665 271
  5.670 288
  5.675 265
  5.680 285
  5.685 280
  5.690 315
  5.695 288
  5.700 274
  5.705 309
  5.710 289
  5.715 298
  5.720 281
  5.725 288
  5.730 275
  5.735 274
  5.740 278
  5.745 274
  5.750 287
  5.755 308
  5.760 263
  5.765 266
  5.770 294
  5.775 268
  5.780 289
  5.785 295
  5.790 266
  5.795 276
  5.800 306
  5.805 259
  5.810 294
  5.815 243
  5.820 295
  5.825 285
  5.830 272
  5.835 275
  5.840 296
  5.845 283
  5.850 287
  5.855 287
  5.860 259
  5.865 275
  5.870 288
  5.875 263
  5.880 291
  5.885 298
  5.890 283
  5.895 286
  5.900 272
  5.905 312
  5.910 291
  5.915 281
  5.920 309
  5.925 286
  5.930 273
  5.935 264
  5.940 256
  5.945 292
  5.950 265
  5.955 284
  5.960 288
  5.965 278
  5.970 295
  5.975 274
  5.980 298
  5.985 237
  5.990 299
  5.995 281
  6.000 290
  6.005 300
  6.010 258
  6.015 272
  6.020 267
  6.025 320
  6.030 301
  6.035 270
  6.040 312
  6.045 352
  6.050 326
  6.055 417
  6.060 550
  6.065 752
  6.070 859
  6.075 780
  6.080 603
  6.085 409
  6.090 370
  6.095 309
  6.100 304
  6.105 286
  6.110 303
  6.115 274
  6.120 281
  6.125 267
  6.130 245
  6.135 272
  6.140 268
  6.145 273
  6.150 281
  6.155 289
  6.160 253
  6.165 287
  6.170 269
  6.175 262
  6.180 268
  6.185 304
  6.190 263
  6.195 288
  6.200 271
  6.205 293
  6.210 262
  6.215 253
  6.220 251
  6.225 271
  6.230 265
  6.235 275
  6.240 269
  6.245 275
  6.250 267
  6.255 224
  6.260 274
  6.265 258
  6.270 270
  6.275 297
  6.280 255
  6.285 273
  6.290 265
  6.295 253
  6.300 253
  6.305 251
  6.310 254
  6.315 280
  6.320 274
  6.325 258
  6.330 271
  6.335 282
  6.340 297
  6.345 294
  6.350 248
  6.355 279
  6.360 242
  6.365 306
  6.370 273
  6.375 271
  6.380 273
  6.385 286
  6.390 284
  6.395 269
  6.400 265
  6.405 287
  6.410 286
  6.415 300
  6.420 272
  6.425 291
  6.430 260
  6.435 305
  6.440 268
  6.445 283
  6.450 297
  6.455 289
  6.460 279
  6.465 261
  6.470 256
  6.475 293
  6.480 242
  6.485 242
  6.490 265
  6.495 269
  6.500 270
  6.505 246
  6.510 300
  6.515 269
  6.520 286
  6.525 238
  6.530 233
  6.535 254
  6.540 266
  6.545 281
  6.550 261
  6.555 296
  6.560 256
  6.565 287
  6.570 271
  6.575 279
  6.580 268
  6.585 283
  6.590 271
  6.595 285
  6.600 255
  6.605 276
  6.610 266
  6.615 287
  6.620 271
  6.625 291
  6.630 297
  6.635 252
  6.640 312
  6.645 250
  6.650 273
  6.655 274
  6.660 268
  6.665 250
  6.670 243
  6.675 278
  6.680 264
  6.685 250
  6.690 282
  6.695 276
  6.700 242
  6.705 278
  6.710 242
  6.715 289
  6.720 282
  6.725 271
  6.730 258
  6.735 285
  6.740 292
  6.745 260
  6.750 256
  6.755 258
  6.760 278
  6.765 268
  6.770 266
  6.775 266
  6.780 253
  6.785 252
  6.790 259
  6.795 252
  6.800 279
  6.805 254
  6.810 254
  6.815 284
  6.820 292
  6.825 271
  6.830 289
  6.835 309
  6.840 268
  6.845 261
  6.850 268
  6.855 272
  6.860 280
  6.865 259
  6.870 242
  6.875 253
  6.880 289
  6.885 273
  6.890 254
  6.895 261
  6.900 270
  6.905 241
  6.910 296
  6.915 245
  6.920 281
  6.925 272
  6.930 262
  6.935 306
  6.940 265
  6.945 272
  6.950 276
  6.955 286
  6.960 275
  6.965 290
  6.970 314
  6.975 298
  6.980 302
  6.985 358
  6.990 405
  6.995 569
  7.000 897
  7.005 1119
  7.010 1126
  7.015 1085
  7.020 791
  7.025 527
  7.030 370
  7.035 334
  7.040 306
  7.045 319
  7.050 320
  7.055 284
  7.060 304
  7.065 270
  7.070 255
  7.075 283
  7.080 275
  7.085 273
  7.090 271
  7.095 268
  7.100 297
  7.105 311
  7.110 287
  7.115 256
  7.120 246
  7.125 291
  7.130 283
  7.135 277
  7.140 264
  7.145 286
  7.150 297
  7.155 243
  7.160 253
  7.165 275
  7.170 267
  7.175 246
  7.180 284
  7.185 294
  7.190 281
  7.195 269
  7.200 295
  7.205 273
  7.210 261
  7.215 275
  7.220 284
  7.225 262
  7.230 251
  7.235 276
  7.240 256
  7.245 274
  7.250 301
  7.255 288
  7.260 316
  7.265 298
  7.270 284
  7.275 281
  7.280 259
  7.285 254
  7.290 253
  7.295 278
  7.300 281
  7.305 307
  7.310 332
  7.315 348
  7.320 336
  7.325 340
  7.330 410
  7.335 532
  7.340 809
  7.345 1327
  7.350 1857
  7.355 1978
  7.360 1484
  7.365 878
  7.370 583
  7.375 387
  7.380 356
  7.385 334
  7.390 339
  7.395 303
  7.400 294
  7.405 284
  7.410 303
  7.415 252
  7.420 296
  7.425 294
  7.430 265
  7.435 257
  7.440 278
  7.445 263
  7.450 261
  7.455 249
  7.460 228
  7.465 275
  7.470 278
  7.475 259
  7.480 269
  7.485 253
  7.490 255
  7.495 241
  7.500 288
  7.505 249
  7.510 267
  7.515 280
  7.520 263
  7.525 217
  7.530 249
  7.535 259
  7.540 247
  7.545 248
  7.550 244
  7.555 263
  7.560 266
  7.565 284
  7.570 285
  7.575 244
  7.580 266
  7.585 266
  7.590 263
  7.595 255
  7.600 264
  7.605 234
  7.610 280
  7.615 282
  7.620 248
  7.625 243
  7.630 242
  7.635 222
  7.640 268
  7.645 281
  7.650 233
  7.655 261
  7.660 256
  7.665 273
  7.670 249
  7.675 275
  7.680 252
  7.685 256
  7.690 250
  7.695 250
  7.700 241
  7.705 253
  7.710 234
  7.715 263
  7.720 270
  7.725 267
  7.730 250
  7.735 270
  7.740 306
  7.745 295
  7.750 317
  7.755 325
  7.760 390
  7.765 518
  7.770 639
  7.775 649
  7.780 588
  7.785 536
  7.790 496
  7.795 568
  7.800 555
  7.805 471
  7.810 339
  7.815 311
  7.820 302
  7.825 259
  7.830 248
  7.835 292
  7.840 257
  7.845 261
  7.850 257
  7.855 266
  7.860 259
  7.865 262
  7.870 241
  7.875 265
  7.880 259
  7.885 276
  7.890 265
  7.895 244
  7.900 244
  7.905 262
  7.910 254
  7.915 282
  7.920 258
  7.925 245
  7.930 242
  7.935 277
  7.940 260
  7.945 238
  7.950 268
  7.955 269
  7.960 262
  7.965 250
  7.970 238
  7.975 250
  7.980 224
  7.985 232
  7.990 256
  7.995 267
  8.000 281
  8.005 258
  8.010 251
  8.015 244
  8.020 271
  8.025 262
  8.030 227
  8.035 246
  8.040 241
  8.045 251
  8.050 252
  8.055 241
  8.060 286
  8.065 259
  8.070 278
  8.075 228
  8.080 229
  8.085 251
  8.090 254
  8.095 242
  8.100 266
  8.105 229
  8.110 269
  8.115 249
  8.120 229
  8.125 272
  8.130 241
  8.135 251
  8.140 231
  8.145 232
  8.150 253
  8.155 298
  8.160 248
  8.165 280
  8.170 259
  8.175 282
  8.180 224
  8.185 257
  8.190 258
  8.195 250
  8.200 256
  8.205 235
  8.210 238
  8.215 246
  8.220 275
  8.225 241
  8.230 249
  8.235 249
  8.240 235
  8.245 259
  8.250 226
  8.255 240
  8.260 260
  8.265 240
  8.270 265
  8.275 273
  8.280 260
  8.285 272
  8.290 246
  8.295 264
  8.300 258
  8.305 265
  8.310 238
  8.315 260
  8.320 272
  8.325 282
  8.330 261
  8.335 260
  8.340 248
  8.345 255
  8.350 246
  8.355 241
  8.360 276
  8.365 267
  8.370 275
  8.375 269
  8.380 284
  8.385 251
  8.390 292
  8.395 261
  8.400 319
  8.405 319
  8.410 251
  8.415 291
  8.420 326
  8.425 285
  8.430 321
  8.435 365
  8.440 381
  8.445 446
  8.450 614
  8.455 926
  8.460 1489
  8.465 2169
  8.470 2323
  8.475 1900
  8.480 1448
  8.485 1563
  8.490 2056
  8.495 2704
  8.500 2681
  8.505 1948
  8.510 1162
  8.515 700
  8.520 488
  8.525 389
  8.530 359
  8.535 340
  8.540 365
  8.545 317
  8.550 325
  8.555 290
  8.560 274
  8.565 268
  8.570 286
  8.575 265
  8.580 287
  8.585 280
  8.590 290
  8.595 276
  8.600 255
  8.605 285
  8.610 260
  8.615 280
  8.620 237
  8.625 258
  8.630 260
  8.635 248
  8.640 244
  8.645 256
  8.650 254
  8.655 231
  8.660 261
  8.665 237
  8.670 276
  8.675 223
  8.680 251
  8.685 287
  8.690 259
  8.695 264
  8.700 252
  8.705 250
  8.710 249
  8.715 255
  8.720 265
  8.725 249
  8.730 240
  8.735 231
  8.740 245
  8.745 257
  8.750 263
  8.755 236
  8.760 253
  8.765 265
  8.770 257
  8.775 245
  8.780 264
  8.785 264
  8.790 239
  8.795 237
  8.800 284
  8.805 246
  8.810 274
  8.815 243
  8.820 263
  8.825 244
  8.830 259
  8.835 238
  8.840 226
  8.845 242
  8.850 242
  8.855 276
  8.860 270
  8.865 253
  8.870 264
  8.875 256
  8.880 243
  8.885 237
  8.890 227
  8.895 231
  8.900 258
  8.905 221
  8.910 248
  8.915 233
  8.920 252
  8.925 261
  8.930 269
  8.935 232
  8.940 236
  8.945 238
  8.950 233
  8.955 242
  8.960 229
  8.965 257
  8.970 246
  8.975 257
  8.980 244
  8.985 256
  8.990 241
  8.995 252
  9.000 254
  9.005 257
  9.010 272
  9.015 231
  9.020 252
  9.025 235
  9.030 249
  9.035 232
  9.040 244
  9.045 274
  9.050 261
  9.055 244
  9.060 252
  9.065 271
  9.070 300
  9.075 310
  9.080 417
  9.085 475
  9.090 692
  9.095 952
  9.100 1011
  9.105 815
  9.110 556
  9.115 462
  9.120 368
  9.125 389
  9.130 347
  9.135 336
  9.140 290
  9.145 270
  9.150 285
  9.155 281
  9.160 284
  9.165 272
  9.170 255
  9.175 263
  9.180 295
  9.185 293
  9.190 251
  9.195 266
  9.200 240
  9.205 251
  9.210 264
  9.215 241
  9.220 274
  9.225 260
  9.230 270
  9.235 268
  9.240 305
  9.245 260
  9.250 278
  9.255 297
  9.260 318
  9.265 377
  9.270 400
  9.275 522
  9.280 830
  9.285 1300
  9.290 2034
  9.295 2529
  9.300 2159
  9.305 1315
  9.310 790
  9.315 474
  9.320 391
  9.325 332
  9.330 292
  9.335 302
  9.340 271
  9.345 274
  9.350 245
  9.355 283
  9.360 250
  9.365 266
  9.370 276
  9.375 251
  9.380 275
  9.385 247
  9.390 252
  9.395 243
  9.400 259
  9.405 252
  9.410 237
  9.415 269
  9.420 245
  9.425 252
  9.430 240
  9.435 256
  9.440 267
  9.445 227
  9.450 259
  9.455 247
  9.460 246
  9.465 236
  9.470 244
  9.475 242
  9.480 239
  9.485 241
  9.490 235
  9.495 280
  9.500 292
  9.505 280
  9.510 303
  9.515 238
  9.520 280
  9.525 277
  9.530 296
  9.535 317
  9.540 345
  9.545 353
  9.550 344
  9.555 485
  9.560 615
  9.565 864
  9.570 1653
  9.575 2498
  9.580 3254
  9.585 2816
  9.590 1847
  9.595 1050
  9.600 612
  9.605 477
  9.610 387
  9.615 335
  9.620 311
  9.625 327
  9.630 294
  9.635 298
  9.640 276
  9.645 317
  9.650 255
  9.655 273
  9.660 248
  9.665 263
  9.670 247
  9.675 254
  9.680 248
  9.685 250
  9.690 254
  9.695 251
  9.700 248
  9.705 245
  9.710 256
  9.715 269
  9.720 295
  9.725 256
  9.730 234
  9.735 241
  9.740 237
  9.745 275
  9.750 233
  9.755 217
  9.760 259
  9.765 249
  9.770 238
  9.775 245
  9.780 215
  9.785 233
  9.790 249
